File: xrd_example_data_files/Ba(NO3)2.csv
'y-axis saved as y
'x,NN_StartingMaterials_Ba(NO3)2.raw
5,37
5.185858,34
5.371716,35
5.557574,37
5.743432,41
5.92929,21
6.115148,34
6.301006,32
6.486864,33
6.672722,26
6.85858,23
7.044438,24
7.230296,24
7.416154,21
7.602012,19
7.78787,28
7.973728,22
8.159586,29
8.345444,30
8.531302,30
8.71716,19
8.903018,11
9.088876,19
9.274734,20
9.460592,23
9.64645,16
9.832308,16
10.0182,22
10.204,19
10.3899,22
10.57574,17
10.7616,14
10.9475,18
11.1333,24
11.3192,18
11.50503,32
11.6909,22
11.8767,13
12.0626,28
12.2485,12
12.43432,18
12.6202,20
12.806,20
12.9919,14
13.1778,23
13.36361,15
13.5495,11
13.7353,11
13.9212,8
14.107,11
14.2929,15
14.4788,14
14.6646,12
14.8505,17
15.0363,12
15.22219,18
15.408,16
15.5939,23
15.7798,19
15.9656,21
16.15148,15
16.3373,15
16.5232,12
16.7091,13
16.8949,15
17.08077,15
17.2666,19
17.4525,17
17.6383,18
17.8242,11
18.01006,20
18.1959,15
18.3818,19
18.5676,15
18.7535,22
18.93935,97
19.1252,216
19.3111,26
19.4969,15
19.6828,12
19.86864,20
20.0545,21
20.2404,12
20.4262,16
20.6121,13
20.79793,19
20.9838,15
21.1696,15
21.3555,23
21.5414,19
21.72722,19
21.9131,57
22.0989,27
22.2848,17
22.4707,9
22.65651,13
22.8424,9
23.0282,17
23.2141,12
23.3999,18
23.5858,12
23.7717,9
23.9575,18
24.1434,14
24.3292,16
24.51509,26
24.7009,34
24.8868,17
25.0727,16
25.2585,17
25.44438,12
25.6302,13
25.8161,12
26.002,17
26.1878,13
26.37367,11
26.5595,23
26.7454,12
26.9312,32
27.1171,19
27.30296,11
27.4888,13
27.6747,14
27.8605,11
28.0464,18
28.23225,10
28.4181,12
28.604,16
28.7898,12
28.9757,16
29.16154,8
29.3474,19
29.5333,8
29.7191,10
29.905,20
30.09083,20
30.2767,17
30.4625,11
30.6484,17
30.8343,15
31.02012,10
31.206,86
31.3918,28
31.5777,12
31.7636,6
31.94941,9
32.1353,14
32.3211,17
32.507,13
32.6928,15
32.8787,18
33.0646,14
33.2504,10
33.4363,17
33.6221,8
33.80799,10
33.9938,7
34.1797,9
34.3656,12
34.5514,10
34.73728,10
34.9231,21
35.109,10
35.2949,13
35.4807,10
35.66657,17
35.8524,15
36.0383,19
36.2241,6
36.41,15
36.59586,17
36.7817,255
36.9676,34
37.1534,16
37.3393,18
37.52515,11
37.711,14
37.8969,13
38.0827,12
38.2686,14
38.45444,397
38.6403,133
38.8262,26
39.012,13
39.1979,13
39.38373,13
39.5696,8
39.7554,11
39.9413,9
40.1272,11
40.31302,13
40.4989,10
40.6847,5
40.8706,12
41.0565,10
41.24231,14
41.4282,10
41.614,12
41.7999,12
41.9857,9
42.1716,13
42.3575,10
42.5433,14
42.7292,9
42.915,8
43.10089,5
43.2867,15
43.4726,6
43.6585,15
43.8443,15
44.03018,13
44.216,7
44.4019,12
44.5878,16
44.7736,58
44.95947,10
45.1453,12
45.3312,12
45.517,12
45.7029,12
45.88876,8
46.0746,8
46.2605,15
46.4463,8
46.6322,7
46.81805,10
47.0039,13
47.1898,5
47.3756,8
47.5615,6
47.74734,14
47.9332,13
48.1191,6
48.3049,7
48.4908,7
48.67663,10
48.8625,13
49.0483,55
49.2342,12
49.4201,3
49.60592,10
49.7918,12
49.9776,7
50.1635,12
50.3494,30
50.53521,15
50.7211,4
50.9069,12
51.0928,5
51.2786,8
51.4645,10
51.6504,13
51.8362,28
52.0221,10
52.2079,10
52.39379,12
52.5796,3
52.7655,12
52.9514,7
53.1372,7
53.32308,9
53.5089,10
53.6948,6
53.8807,5
54.0665,10
54.25237,8
54.4382,11
54.6241,6
54.8099,11
54.9958,13
55.18166,7
55.3675,17
55.5534,35
55.7392,14
55.9251,10
56.11095,11
56.2968,12
56.4827,8
56.6685,10
56.8544,9
57.04024,9
57.2261,6
57.412,11
57.5978,13
57.7837,16
57.96953,12
58.1554,9
58.3412,12
58.5271,12
58.713,9
58.89882,14
59.0847,32
59.2705,68
59.4564,16
59.6423,12
59.82811,3
60.014,8
60.0326,7