File: xrd_example_data_files/ZrP_2.csv
'y-axis saved as y
'x,ML_Wallace_03012020_1_NN_1_ZrP_900CCrucible_5-60_4min_BkgSubtracted.raw_1
5,-22.2261
5.185858,33.9764
5.371716,19.1646
5.557574,16.4668
5.743432,-12.4041
5.92929,-24.30896
6.115148,8.90005
6.301006,8.22299
6.486864,9.65991
6.672722,-19.7892
6.85858,-1.74052
7.044438,0.957825
7.230296,-0.760986
7.416154,-13.4902
7.602012,-1.6384
7.78787,-10.9699
7.973728,11.1372
8.159586,0.358246
8.345444,14.8246
8.531302,0.536179
8.71716,2.36173
8.903018,15.5705
9.088876,1.79707
9.274734,32.1376
9.460592,12.5921
9.64645,20.1605
9.832308,-2.15713
10.0182,7.63919
10.204,21.5494
10.3899,16.5737
10.57574,32.7118
10.7616,-3.03823
10.9475,4.31712
11.1333,9.78642
11.3192,-9.63034
11.50503,16.0668
11.6909,14.878
11.8767,13.8031
12.0626,10.6506
12.2485,-9.67508
12.43432,7.11317
12.6202,15.0154
12.806,11.9623
12.9919,-2.25379
13.1778,14.6441
13.36361,12.6559
13.5495,1.78165
13.7353,-5.72987
13.9212,3.74569
14.107,30.3352
14.2929,9.03864
14.4788,7.85603
14.6646,5.78738
14.8505,-5.16734
15.0363,-2.5153
15.22219,-8.51012
15.408,9.60901
15.5939,4.84209
15.7798,-5.81089
15.9656,16.6501
16.15148,-8.77502
16.3373,16.9138
16.5232,1.71665
16.7091,-8.3666
16.8949,1.09785
17.08077,15.6763
17.2666,8.3686
17.4525,4.1749
17.6383,7.09513
17.8242,9.12932
18.01006,5.27744
18.1959,-1.46048
18.3818,16.9155
18.5676,1.40551
18.7535,11.3599
18.93935,10.9953
19.1252,-5.25538
19.3111,2.60789
19.4969,10.5851
19.6828,3.67625
19.86864,0.881355
20.0545,8.20041
20.2404,-8.3666
20.4262,9.27464
20.6121,19.0298
20.79793,11.8989
20.9838,-0.117981
21.1696,-0.0209579
21.3555,9.19
21.5414,-8.48508
21.72722,15.4923
21.9131,11.5836
22.0989,1.78886
22.2848,8.10806
22.4707,8.54121
22.65651,5.94164
22.8424,16.3932
23.0282,-7.04139
23.2141,8.63802
23.3999,5.43137
23.5858,17.3387
23.7717,10.6194
23.9575,16.9033
24.1434,62.3012
24.3292,21.813
24.51509,22.4388
24.7009,9.1785
24.8868,8.03215
25.0727,4.99976
25.2585,-10.9187
25.44438,6.27679
25.6302,2.51571
25.8161,11.5865
26.002,14.7712
26.1878,6.06991
26.37367,-0.517464
26.5595,-12.9909
26.7454,16.6496
26.9312,4.40408
27.1171,4.759
27.30296,2.02975
27.4888,-0.585556
27.6747,22.9131
27.8605,142.526
28.0464,162.252
28.23225,219.093
28.4181,171.047
28.604,128.115
28.7898,402.298
28.9757,169.594
29.16154,27.0042
29.3474,5.52839
29.5333,1.16649
29.7191,-4.08147
29.905,19.1331
30.09083,27.3893
30.2767,41.7595
30.4625,31.2435
30.6484,0.841576
30.8343,20.5535
31.02012,11.3795
31.206,31.3193
31.3918,167.373
31.5777,125.541
31.7636,30.8226
31.94941,-3.78176
32.1353,-0.272175
32.3211,-1.64864
32.507,10.0888
32.6928,3.94027
32.8787,4.59975
33.0646,8.8135
33.2504,5.14119
33.4363,14.5828
33.6221,7.92871
33.80799,0.549728
33.9938,32.1868
34.1797,42.927
34.3656,49.7812
34.5514,30.7493
34.73728,20.8313
34.9231,40.0273
35.109,99.3372
35.2949,725.761
35.4807,591.299
35.66657,67.9507
35.8524,29.7164
36.0383,2.59601
36.2241,7.5896
36.41,7.2135
36.59586,14.6289
36.7817,11.1583
36.9676,2.80157
37.1534,0.558815
37.3393,12.43
37.52515,-3.58485
37.711,6.96809
37.8969,12.4632
38.0827,11.0722
38.2686,0.795227
38.45444,1.632164
38.6403,10.583
38.8262,3.64787
39.012,-5.17336
39.1979,-0.124054
39.38373,0.471218
39.5696,18.1804
39.7554,9.00359
39.9413,22.9407
40.1272,76.9918
40.31302,302.157
40.4989,82.4357
40.6847,42.8286
40.8706,18.3354
41.0565,21.9562
41.24231,13.6909
41.4282,13.5396
41.614,2.50222
41.7999,4.57879
41.9857,9.7693
42.1716,5.04474
42.3575,11.8254
42.5433,19.4856
42.7292,6.25984
42.915,5.14798
43.10089,4.15008
43.2867,9.26611
43.4726,10.4961
43.6585,3.84003
43.8443,9.2979
44.03018,0.869728
44.216,1.55549
44.4019,8.72385
44.5878,-4.94087
44.7736,7.508358
44.95947,3.07153
45.1453,4.74864
45.3312,10.5397
45.517,21.4447
45.7029,21.4637
45.88876,55.5966
46.0746,159.843
46.2605,45.2042
46.4463,16.6789
46.6322,2.26761
46.81805,22.9702
47.0039,8.78681
47.1898,7.58714
47.3756,8.98065
47.5615,-1.52062
47.74734,8.01347
47.9332,2.2893
48.1191,-5.80968
48.3049,13.2053
48.4908,0.309505
48.67663,-6.4785
48.8625,7.76697
49.0483,32.1264
49.2342,117.6
49.4201,454.187
49.60592,158.888
49.7918,39.7035
49.9776,16.6327
50.1635,43.6758
50.3494,29.8328
50.53521,33.1038
50.7211,35.4887
50.9069,8.98759
51.0928,2.60041
51.2786,13.3272
51.4645,9.16789
51.6504,3.97117
51.8362,11.526
52.0221,9.19483
52.2079,25.9776
52.39379,44.8743
52.5796,4.88491
52.7655,12.0095
52.9514,-0.751968
53.1372,2.60051
53.32308,7.06693
53.5089,1.39773
53.6948,18.8442
53.8807,4.40462
54.0665,10.079
54.25237,-1.13271
54.4382,9.76955
54.6241,-1.21425
54.8099,2.9159
54.9958,2.15999
55.18166,17.9833
55.3675,9.69147
55.5534,33.5136
55.7392,16.4496
55.9251,5.49957
56.11095,7.66349
56.2968,6.94136
56.4827,13.3332
56.6685,12.6656
56.8544,1.99644
57.04024,-0.100105
57.2261,0.75201
57.412,1.71807
57.5978,0.798073
57.7837,30.992
57.96953,98.2999
58.1554,115.722
58.3412,46.2575
58.5271,4.90728
58.713,18.671
58.89882,71.5486
59.0847,114.54
59.2705,76.6457
59.4564,15.8651
59.6423,-2.18636
59.82811,4.4912
60.014,-8.48528
60.0326,-9.16515