File: xrd_example_data_files/ZrP_1.csv
'y-axis saved as y
'x,ML_Wallace_17122019_1_NN_1_ZrP_Crucible_12x16_14x161of2Crucibles_BlackPowder_5-60_4min_BkgSubtracted.raw
5,-23.0651
5.185858,-13.1443
5.371716,26.4066
5.557574,5.53134
5.743432,-2.53146
5.92929,-0.497528
6.115148,13.6331
6.301006,5.86047
6.486864,5.18457
6.672722,34.6053
6.85858,0.122849
7.044438,28.7371
7.230296,-13.5423
7.416154,16.6148
7.602012,4.8687
7.78787,21.7862
7.973728,-11.3493
8.159586,-1.65622
8.345444,24.0819
8.531302,-2.49301
8.71716,8.0288
8.903018,20.6473
9.088876,-5.86558
9.274734,-1.19438
9.460592,28.5735
9.64645,17.4382
9.832308,8.39951
10.0182,-4.54243
10.204,17.6123
10.3899,26.8638
10.57574,28.212
10.7616,-0.34304
10.9475,2.19859
11.1333,3.83694
11.3192,-8.42799
11.50503,23.4038
11.6909,13.3323
11.8767,15.3575
12.0626,3.47942
12.2485,16.6981
12.43432,-10.9866
12.6202,14.1477
12.806,15.3787
12.9919,7.70635
13.1778,4.13076
13.36361,13.6519
13.5495,2.26971
13.7353,-2.01573
13.9212,0.79554
14.107,24.7035
14.2929,-0.291786
14.4788,16.8096
14.6646,-8.99224
14.8505,26.784
15.0363,27.3111
15.22219,-1.06499
15.408,1.6556
15.5939,5.47291
15.7798,-0.613068
15.9656,-8.60233
16.15148,-1.52695
16.3373,6.4536
16.5232,3.44876
16.7091,7.5126
16.8949,2.56843
17.08077,17.7228
17.2666,6.97398
17.4525,2.32182
17.6383,29.7664
17.8242,6.30766
18.01006,0.945648
18.1959,-1.46084
18.3818,-6.89742
18.5676,-3.23728
18.7535,8.51958
18.93935,8.37315
19.1252,6.32343
19.3111,7.37042
19.4969,1.51414
19.6828,4.75457
19.86864,6.09171
20.0545,8.52557
20.2404,16.0561
20.4262,4.68343
20.6121,11.4074
20.79793,-6.77185
20.9838,9.14558
21.1696,11.1597
21.3555,18.3106
21.5414,9.1182
21.72722,18.0225
21.9131,0.0235519
22.0989,11.1213
22.2848,12.3158
22.4707,10.6069
22.65651,16.9948
22.8424,-3.52058
23.0282,-8.93925
23.2141,2.73878
23.3999,-5.48647
23.5858,11.385
23.7717,-1.64682
23.9575,-0.581924
24.1434,11.5797
24.3292,39.838
24.51509,17.1931
24.7009,8.64481
24.8868,-5.80672
25.0727,4.83846
25.2585,-1.41963
25.44438,14.419
25.6302,8.35431
25.8161,-3.61364
26.002,-17.4849
26.1878,9.1481
26.37367,17.8778
26.5595,1.704216
26.7454,14.6273
26.9312,6.64719
27.1171,1.35584
27.30296,9.75333
27.4888,9.24751
27.6747,1.83842
27.8605,101.526
28.0464,129.31
28.23225,131.191
28.4181,144.169
28.604,87.2437
28.7898,247.415
28.9757,161.6828
29.16154,27.0474
29.3474,4.50877
29.5333,1.06683
29.7191,8.72784
29.905,15.5001
30.09083,11.3691
30.2767,39.3348
30.4625,24.3973
30.6484,15.5564
30.8343,5.81226
31.02012,-3.83517
31.206,5.61412
31.3918,90.1601
31.5777,56.8028
31.7636,26.5423
31.94941,11.3784
32.1353,17.3113
32.3211,4.37458
32.507,8.08517
32.6928,3.89247
32.8787,5.79649
33.0646,6.67691
33.2504,14.624
33.4363,10.6677
33.6221,6.80822
33.80799,-1.98546
33.9938,22.0396
34.1797,32.1614
34.3656,13.38
34.5514,13.6952
34.73728,12.1072
34.9231,24.6158
35.109,33.2212
35.2949,415.923
35.4807,558.722
35.66657,55.6176
35.8524,10.6099
36.0383,14.6988
36.2241,-1.46864
36.41,9.63657
36.59586,10.8385
36.7817,10.1372
36.9676,1.53252
37.1534,-4.97541
37.3393,12.6134
37.52515,2.2989
37.711,-0.91888
37.8969,-9.23172
38.0827,4.2645
38.2686,-2.14257
38.45444,-11.4529
38.6403,12.3334
38.8262,1.21652
39.012,12.1963
39.1979,7.27282
39.38373,4.81699
39.5696,-1.00993
39.7554,-2.74013
39.9413,12.6264
40.1272,19.0896
40.31302,239.65
40.4989,93.3062
40.6847,26.0596
40.8706,20.9097
41.0565,8.85651
41.24231,2.90003
41.4282,1.04026
41.614,1.27722
41.7999,11.6109
41.9857,4.04126
42.1716,18.5684
42.3575,-4.807827
42.5433,1.9127
42.7292,11.7299
42.915,6.03461
43.10089,-6.079216
43.2867,16.831
43.4726,8.83795
43.6585,-0.0583954
43.8443,-0.858028
44.03018,-6.56094
44.216,7.83286
44.4019,17.3234
44.5878,-4.0894
44.7736,-12.5427
44.95947,5.86557
45.1453,4.37056
45.3312,2.97225
45.517,-2.32934
45.7029,-0.534214
45.88876,28.3576
46.0746,115.346
46.2605,28.4315
46.4463,11.6134
46.6322,6.89214
46.81805,1.26756
47.0039,-8.26031
47.1898,12.3085
47.3756,3.9741
47.5615,7.60096
47.74734,-5.81086
47.9332,8.87402
48.1191,18.0447
48.3049,0.909466
48.4908,2.8709
48.67663,10.9291
48.8625,-5.91608
49.0483,1.43713
49.2342,46.8871
49.4201,349.434
49.60592,179.077
49.7918,35.8171
49.9776,6.65393
50.1635,-0.412567
50.3494,22.6177
50.53521,21.7446
50.7211,15.9682
50.9069,18.2886
51.0928,-1.29432
51.2786,-8.78053
51.4645,8.82998
51.6504,-1.46279
51.8362,3.34115
52.0221,4.2418
52.2079,8.23917
52.39379,35.3333
52.5796,9.52406
52.7655,13.8116
52.9514,5.1958
53.1372,6.42547
53.32308,5.49041
53.5089,10.6521
53.6948,4.91044
53.8807,-0.734478
54.0665,12.7173
54.25237,-4.73416
54.4382,5.91107
54.6241,-4.34699
54.8099,6.49167
54.9958,5.27308
55.18166,1.5353
55.3675,5.89423
55.5534,15.3499
55.7392,8.90225
55.9251,-4.44867
56.11095,10.2971
56.2968,-0.860359
56.4827,1.07887
56.6685,6.11481
56.8544,8.21449
57.04024,-2.62209
57.2261,4.63805
57.412,11.9949
57.5978,12.741
57.7837,28.5225
57.96953,65.4007
58.1554,107.376
58.3412,43.4473
58.5271,11.6157
58.713,1.71291
58.89882,35.2353
59.0847,87.8543
59.2705,43.5701
59.4564,3.38259
59.6423,-6.7082
59.82811,-5.8707
60.014,-7.14143
60.0326,-7.87401