File: xrd_example_data_files/ZrP_3.csv
'y-axis saved as y
'x,ML_Wallace_04122019_1_NN_1_ZrP_CrucibleRetest_5-60_4min_BkgSubtracted.raw
5,-22.6053
5.185858,-17.0032
5.371716,-20.9939
5.557574,-7.88519
5.743432,13.3861
5.92929,-3.27051
6.115148,17.0169
6.301006,15.0945
6.486864,14.2442
6.672722,34.4661
6.85858,1.76009
7.044438,30.0024
7.230296,12.9804
7.416154,3.959198
7.602012,-13.9899
7.78787,-12.4717
7.973728,-12.8813
8.159586,26.8808
8.345444,-13.9428
8.531302,17.3058
8.71716,13.6265
8.903018,38.0193
9.088876,7.48436
9.274734,29.0215
9.460592,7.63081
9.64645,-13.6877
9.832308,11.0659
10.0182,15.8916
10.204,0.789505
10.3899,7.759552
10.57574,8.80176
10.7616,14.9161
10.9475,5.10259
11.1333,2.36123
11.3192,30.692
11.50503,9.09496
11.6909,10.57
11.8767,-8.88272
12.0626,10.7367
12.2485,11.4282
12.43432,-1.83961
12.6202,3.68138
12.806,12.2614
12.9919,0.861122
13.1778,-2.46702
13.36361,7.27699
13.5495,6.09314
13.7353,23.9814
13.9212,-6.0581
14.107,8.9745
14.2929,3.07925
14.4788,1.25615
14.6646,-3.4948
14.8505,19.8264
15.0363,7.97196
15.22219,16.9419
15.408,15.984
15.5939,8.09825
15.7798,13.2846
15.9656,-7.51097
16.15148,9.27812
16.3373,0.139366
16.5232,18.791
16.7091,-1.60603
16.8949,14.0691
17.08077,14.8164
17.2666,0.635834
17.4525,22.52742
17.6383,7.49115
17.8242,-7.47297
18.01006,11.6351
18.1959,2.81525
18.3818,21.0676
18.5676,5.39205
18.7535,13.7887
18.93935,17.9419
19.1252,10.8517
19.3111,16.8337
19.4969,12.8878
19.6828,-19.986
19.86864,0.0446243
20.0545,21.1474
20.2404,10.3222
20.4262,-3.47561
20.6121,-1.3808
20.79793,16.7862
20.9838,3.02528
21.1696,8.33654
21.3555,3.71996
21.5414,-6.82449
21.72722,9.46219
21.9131,25.6831
22.0989,6.9762
22.2848,9.34143
22.4707,7.77881
22.65651,-1.71166
22.8424,12.87
23.0282,-5.47617
23.2141,2.24981
23.3999,5.04793
23.5858,15.9182
23.7717,11.8606
23.9575,12.8752
24.1434,43.9619
24.3292,37.1208
24.51509,23.3518
24.7009,19.6549
24.8868,12.0302
25.0727,8.4777
25.2585,6.99731
25.44438,7.58907
25.6302,31.253
25.8161,4.98902
26.002,0.797218
26.1878,8.67757
26.37367,3.63007
26.5595,15.1451
26.7454,15.5433
26.9312,-3.98641
27.1171,3.55605
27.30296,14.8795
27.4888,8.242836
27.6747,39.6783
27.8605,99.1859
28.0464,92.7656
28.23225,195.418
28.4181,114.142
28.604,88.9377
28.7898,141.806
28.9757,132.747
29.16154,161.759
29.3474,212.844
29.5333,106.001
29.7191,48.23
29.905,47.5312
30.09083,52.9046
30.2767,66.3501
30.4625,31.8678
30.6484,2.45763
30.8343,-11.8804
31.02012,4.85372
31.206,31.66
31.3918,95.5384
31.5777,49.489
31.7636,24.5117
31.94941,22.6066
32.1353,18.7736
32.3211,-2.48039
32.507,10.1872
32.6928,9.92694
32.8787,13.7388
33.0646,7.62286
33.2504,27.579
33.4363,43.6074
33.6221,75.7079
33.80799,164.88
33.9938,367.125
34.1797,349.4422
34.3656,223.831
34.5514,152.293
34.73728,127.826
34.9231,107.431
35.109,152.109
35.2949,180.859
35.4807,109.681
35.66657,48.575
35.8524,13.5412
36.0383,33.5797
36.2241,3.69022
36.41,16.8729
36.59586,-1.87221
36.7817,0.421883
36.9676,7.49187
37.1534,-7.40562
37.3393,-7.58755
37.52515,8.30267
37.711,6.77486
37.8969,15.1091
38.0827,-0.484463
38.2686,2.50413
38.45444,10.3549
38.6403,4.27777
38.8262,7.27281
39.012,-4.65999
39.1979,-2.52065
39.38373,17.6908
39.5696,13.9745
39.7554,3.33027
39.9413,15.7582
40.1272,13.2583
40.31302,12.8305
40.4989,9.4749
40.6847,26.1914
40.8706,7.98011
41.0565,0.840935
41.24231,-2.22609
41.4282,11.779
41.614,7.85631
41.7999,-0.99427
41.9857,-1.7727
42.1716,-3.47898
42.3575,-6.11311
42.5433,5.64019
42.7292,9.78094
42.915,6.99384
43.10089,12.2789
43.2867,8.63607
43.4726,-0.934582
43.6585,-0.433094
43.8443,12.1282
44.03018,-4.28782
44.216,13.3683
44.4019,-2.09821
44.5878,3.75393
44.7736,6.67822
44.95947,-2.32534
45.1453,-0.256756
45.3312,-0.11602
45.517,0.0968628
45.7029,9.3819
45.88876,3.73907
46.0746,13.1684
46.2605,-2.33012
46.4463,18.2435
46.6322,8.88929
46.81805,12.6072
47.0039,6.39728
47.1898,-3.7405
47.3756,0.990593
47.5615,0.590553
47.74734,9.26266
47.9332,12.0069
48.1191,33.8233
48.3049,32.7119
48.4908,61.6726
48.67663,92.7054
48.8625,182.81
49.0483,219.988
49.2342,227.237
49.4201,162.558
49.60592,67.9519
49.7918,56.4177
49.9776,43.9555
50.1635,66.5656
50.3494,29.2478
50.53521,33.0021
50.7211,29.8286
50.9069,31.7272
51.0928,8.69801
51.2786,27.7409
51.4645,2.85602
51.6504,13.0433
51.8362,1.24584
52.0221,0.388088
52.2079,18.6025
52.39379,-3.11097
52.5796,11.9295
52.7655,1.51192
52.9514,0.166512
53.1372,0.89325
53.32308,10.6921
53.5089,-8.43682
53.6948,-3.49364
53.8807,29.5217
54.0665,15.6092
54.25237,10.7688
54.4382,-4.99942
54.6241,7.30451
54.8099,-2.43151
54.9958,9.73646
55.18166,4.97658
55.3675,9.28885
55.5534,16.6733
55.7392,10.1298
55.9251,9.65854
56.11095,11.2594
56.2968,2.93242
56.4827,0.0834808
56.6685,0.930309
56.8544,19.8493
57.04024,-0.159595
57.2261,8.90368
57.412,28.0391
57.5978,15.2467
57.7837,50.5264
57.96953,97.8783
58.1554,94.3023
58.3412,50.7984
58.5271,33.3667
58.713,10.0072
58.89882,4.71981
59.0847,11.5046
59.2705,33.3615
59.4564,6.29053
59.6423,-9.82646
59.82811,2.51957
60.014,-8.06226
60.0326,-8.30663